PhotonEnergy(eV) Transmission  
    0.0000      0.00000
    10.000      0.26897    
    25.000      0.97702    
    40.000      0.97699    
    55.000      0.98411    
    70.000      0.98511    
    85.000      0.77452    
    100.00      0.74769    
    115.00      0.73338    
    130.00      0.73468    
    145.00      0.75644    
    160.00      0.77785    
    175.00      0.79755    
    190.00      0.82497    
    205.00      0.85028    
    220.00      0.87097    
    235.00      0.88616    
    250.00      0.89836    
    265.00      0.90875    
    280.00      0.91965    
    295.00      0.92919    
    310.00      0.93725    
    325.00      0.94409    
    340.00      0.94995    
    355.00      0.95499    
    370.00      0.95906    
    385.00      0.96253    
    400.00      0.96559    
    415.00      0.96830    
    430.00      0.97072    
    445.00      0.97299    
    460.00      0.97509    
    475.00      0.97697    
    490.00      0.97866    
    505.00      0.98020    
    520.00      0.98161    
    535.00      0.98288    
    550.00      0.98403    
    565.00      0.98510    
    580.00      0.98609    
    595.00      0.98699    
    610.00      0.98782    
    625.00      0.98858    
    640.00      0.98929    
    655.00      0.98996    
    670.00      0.99058    
    685.00      0.99111    
    700.00      0.99158    
    715.00      0.99203    
    730.00      0.99246    
    745.00      0.99286    
    760.00      0.99323    
    775.00      0.99358    
    790.00      0.99390    
    805.00      0.99421    
    820.00      0.99449    
    835.00      0.99475    
    850.00      0.99500    
    865.00      0.99524    
    880.00      0.99545    
    895.00      0.99566    
    910.00      0.99585    
    925.00      0.99603    
    940.00      0.99620    
    955.00      0.99636    
    970.00      0.99652    
    985.00      0.99666    
    1000.0      0.99680    
    1015.0      0.99692    
    1030.0      0.99704    
    1045.0      0.99715    
    1060.0      0.99726    
    1075.0      0.99737    
    1090.0      0.99747    
    1105.0      0.99756    
    1120.0      0.99765    
    1135.0      0.99773    
    1150.0      0.99781    
    1165.0      0.99789    
    1180.0      0.99796    
    1195.0      0.99803    
    1210.0      0.99810    
    1225.0      0.99816    
    1240.0      0.99822    
    1255.0      0.99828    
    1270.0      0.99834    
    1285.0      0.99839    
    1300.0      0.99844    
    1315.0      0.99849    
    1330.0      0.99853    
    1345.0      0.99857    
    1360.0      0.99862    
    1375.0      0.99866    
    1390.0      0.99870    
    1405.0      0.99873    
    1420.0      0.99877    
    1435.0      0.99880    
    1450.0      0.99884    
    1465.0      0.99887    
    1480.0      0.99890    
    1495.0      0.99893    
    1510.0      0.99896    
    1525.0      0.99899    
    1540.0      0.99902    
    1555.0      0.99905    
    1570.0      0.98899    
    1585.0      0.98923    
    1600.0      0.98947    
    1615.0      0.98970    
    1630.0      0.98992    
    1645.0      0.99014    
    1660.0      0.99034    
    1675.0      0.99055    
    1690.0      0.99074    
    1705.0      0.99093    
    1720.0      0.99112    
    1735.0      0.99130    
    1750.0      0.99148    
    1765.0      0.99166    
    1780.0      0.99183    
    1795.0      0.99200    
    1810.0      0.99216    
    1825.0      0.99232    
    1840.0      0.99247    
    1855.0      0.99262    
    1870.0      0.99277    
    1885.0      0.99291    
    1900.0      0.99305    
    1915.0      0.99318    
    1930.0      0.99331    
    1945.0      0.99344    
    1960.0      0.99356    
    1975.0      0.99368    
    1990.0      0.99380    
    2005.0      0.99391    
    2020.0      0.99402    
    2035.0      0.99413    
    2050.0      0.99424    
    2065.0      0.99435    
    2080.0      0.99445    
    2095.0      0.99455    
    2110.0      0.99465    
    2125.0      0.99474    
    2140.0      0.99484    
    2155.0      0.99493    
    2170.0      0.99502    
    2185.0      0.99511    
    2200.0      0.99519    
    2215.0      0.99528    
    2230.0      0.99536    
    2245.0      0.99544    
    2260.0      0.99552    
    2275.0      0.99559    
    2290.0      0.99567    
    2305.0      0.99574    
    2320.0      0.99581    
    2335.0      0.99588    
    2350.0      0.99595    
    2365.0      0.99602    
    2380.0      0.99608    
    2395.0      0.99615    
    2410.0      0.99621    
    2425.0      0.99627    
    2440.0      0.99633    
    2455.0      0.99639    
    2470.0      0.99645    
    2485.0      0.99651    
    2500.0      0.99656    
    2515.0      0.99662    
    2530.0      0.99667    
    2545.0      0.99672    
    2560.0      0.99677    
    2575.0      0.99682    
    2590.0      0.99687    
    2605.0      0.99692    
    2620.0      0.99697    
    2635.0      0.99701    
    2650.0      0.99706    
    2665.0      0.99710    
    2680.0      0.99714    
    2695.0      0.99719    
    2710.0      0.99723    
    2725.0      0.99727    
    2740.0      0.99731    
    2755.0      0.99735    
    2770.0      0.99739    
    2785.0      0.99742    
    2800.0      0.99746    
    2815.0      0.99750    
    2830.0      0.99753    
    2845.0      0.99757    
    2860.0      0.99760    
    2875.0      0.99764    
    2890.0      0.99767    
    2905.0      0.99770    
    2920.0      0.99773    
    2935.0      0.99777    
    2950.0      0.99780    
    2965.0      0.99783    
    2980.0      0.99786    
    2995.0      0.99789    
    3010.0      0.99791    
    3025.0      0.99794    
    3040.0      0.99797    
    3055.0      0.99800    
    3070.0      0.99802    
    3085.0      0.99805    
    3100.0      0.99808    
    3115.0      0.99810    
    3130.0      0.99813    
    3145.0      0.99815    
    3160.0      0.99817    
    3175.0      0.99820    
    3190.0      0.99822    
    3205.0      0.99824    
    3220.0      0.99827    
    3235.0      0.99829    
    3250.0      0.99831    
    3265.0      0.99833    
    3280.0      0.99835    
    3295.0      0.99837    
    3310.0      0.99839    
    3325.0      0.99841    
    3340.0      0.99843    
    3355.0      0.99845    
    3370.0      0.99847    
    3385.0      0.99849    
    3400.0      0.99851    
    3415.0      0.99853    
    3430.0      0.99854    
    3445.0      0.99856    
    3460.0      0.99858    
    3475.0      0.99860    
    3490.0      0.99861    
    3505.0      0.99863    
    3520.0      0.99865    
    3535.0      0.99866    
    3550.0      0.99868    
    3565.0      0.99869    
    3580.0      0.99871    
    3595.0      0.99872    
    3610.0      0.99874    
    3625.0      0.99875    
    3640.0      0.99877    
    3655.0      0.99878    
    3670.0      0.99879    
    3685.0      0.99881    
    3700.0      0.99882    
    3715.0      0.99883    
    3730.0      0.99885    
    3745.0      0.99886    
    3760.0      0.99887    
    3775.0      0.99889    
    3790.0      0.99890    
    3805.0      0.99891    
    3820.0      0.99892    
    3835.0      0.99893    
    3850.0      0.99895    
    3865.0      0.99896    
    3880.0      0.99897    
    3895.0      0.99898    
    3910.0      0.99899    
    3925.0      0.99900    
    3940.0      0.99901    
    3955.0      0.99902    
    3970.0      0.99903    
    3985.0      0.99904    
    4000.0      0.99905    
    4015.0      0.99906    
    4030.0      0.99907    
    4045.0      0.99908    
    4060.0      0.99909    
    4075.0      0.99910    
    4090.0      0.99911    
    4105.0      0.99912    
    4120.0      0.99913    
    4135.0      0.99914    
    4150.0      0.99915    
    4165.0      0.99915    
    4180.0      0.99916    
    4195.0      0.99917    
    4210.0      0.99918    
    4225.0      0.99919    
    4240.0      0.99920    
    4255.0      0.99920    
    4270.0      0.99921    
    4285.0      0.99922    
    4300.0      0.99923    
    4315.0      0.99924    
    4330.0      0.99924    
    4345.0      0.99925    
    4360.0      0.99926    
    4375.0      0.99926    
    4390.0      0.99927    
    4405.0      0.99928    
    4420.0      0.99929    
    4435.0      0.99929    
    4450.0      0.99930    
    4465.0      0.99931    
    4480.0      0.99931    
    4495.0      0.99932    
    4510.0      0.99933    
    4525.0      0.99933    
    4540.0      0.99934    
    4555.0      0.99934    
    4570.0      0.99935    
    4585.0      0.99936    
    4600.0      0.99936    
    4615.0      0.99937    
    4630.0      0.99937    
    4645.0      0.99938    
    4660.0      0.99939    
    4675.0      0.99939    
    4690.0      0.99940    
    4705.0      0.99940    
    4720.0      0.99941    
    4735.0      0.99941    
    4750.0      0.99942    
    4765.0      0.99942    
    4780.0      0.99943    
    4795.0      0.99943    
    4810.0      0.99944    
    4825.0      0.99944    
    4840.0      0.99945    
    4855.0      0.99945    
    4870.0      0.99946    
    4885.0      0.99946    
    4900.0      0.99947    
    4915.0      0.99947    
    4930.0      0.99948    
    4945.0      0.99948    
    4960.0      0.99949    
    4975.0      0.99949    
    4990.0      0.99949    
    5005.0      0.99950    
    5020.0      0.99950    
    5035.0      0.99951    
    5050.0      0.99951    
    5065.0      0.99952    
    5080.0      0.99952    
    5095.0      0.99952    
    5110.0      0.99953    
    5125.0      0.99953    
    5140.0      0.99954    
    5155.0      0.99954    
    5170.0      0.99954    
    5185.0      0.99955    
    5200.0      0.99955    
    5215.0      0.99955    
    5230.0      0.99956    
    5245.0      0.99956    
    5260.0      0.99957    
    5275.0      0.99957    
    5290.0      0.99957    
    5305.0      0.99958    
    5320.0      0.99958    
    5335.0      0.99958    
    5350.0      0.99959    
    5365.0      0.99959    
    5380.0      0.99959    
    5395.0      0.99960    
    5410.0      0.99960    
    5425.0      0.99960    
    5440.0      0.99961    
    5455.0      0.99961    
    5470.0      0.99961    
    5485.0      0.99961    
    5500.0      0.99962    
    5515.0      0.99962    
    5530.0      0.99962    
    5545.0      0.99963    
    5560.0      0.99963    
    5575.0      0.99963    
    5590.0      0.99963    
    5605.0      0.99964    
    5620.0      0.99964    
    5635.0      0.99964    
    5650.0      0.99965    
    5665.0      0.99965    
    5680.0      0.99965    
    5695.0      0.99965    
    5710.0      0.99966    
    5725.0      0.99966    
    5740.0      0.99966    
    5755.0      0.99966    
    5770.0      0.99967    
    5785.0      0.99967    
    5800.0      0.99967    
    5815.0      0.99967    
    5830.0      0.99968    
    5845.0      0.99968    
    5860.0      0.99968    
    5875.0      0.99968    
    5890.0      0.99969    
    5905.0      0.99969    
    5920.0      0.99969    
    5935.0      0.99969    
    5950.0      0.99970    
    5965.0      0.99970    
    5980.0      0.99970    
    5995.0      0.99970    
    6010.0      0.99970    
    6025.0      0.99971    
    6040.0      0.99971    
    6055.0      0.99971    
    6070.0      0.99971    
    6085.0      0.99971    
    6100.0      0.99972    
    6115.0      0.99972    
    6130.0      0.99972    
    6145.0      0.99972    
    6160.0      0.99972    
    6175.0      0.99973    
    6190.0      0.99973    
    6205.0      0.99973    
    6220.0      0.99973    
    6235.0      0.99973    
    6250.0      0.99974    
    6265.0      0.99974    
    6280.0      0.99974    
    6295.0      0.99974    
    6310.0      0.99974    
    6325.0      0.99974    
    6340.0      0.99975    
    6355.0      0.99975    
    6370.0      0.99975    
    6385.0      0.99975    
    6400.0      0.99975    
    6415.0      0.99975    
    6430.0      0.99976    
    6445.0      0.99976    
    6460.0      0.99976    
    6475.0      0.99976    
    6490.0      0.99976    
    6505.0      0.99976    
    6520.0      0.99977    
    6535.0      0.99977    
    6550.0      0.99977    
    6565.0      0.99977    
    6580.0      0.99977    
    6595.0      0.99977    
    6610.0      0.99978    
    6625.0      0.99978    
    6640.0      0.99978    
    6655.0      0.99978    
    6670.0      0.99978    
    6685.0      0.99978    
    6700.0      0.99978    
    6715.0      0.99979    
    6730.0      0.99979    
    6745.0      0.99979    
    6760.0      0.99979    
    6775.0      0.99979    
    6790.0      0.99979    
    6805.0      0.99979    
    6820.0      0.99979    
    6835.0      0.99980    
    6850.0      0.99980    
    6865.0      0.99980    
    6880.0      0.99980    
    6895.0      0.99980    
    6910.0      0.99980    
    6925.0      0.99980    
    6940.0      0.99980    
    6955.0      0.99981    
    6970.0      0.99981    
    6985.0      0.99981    
    7000.0      0.99981    
    7015.0      0.99981    
    7030.0      0.99981    
    7045.0      0.99981    
    7060.0      0.99981    
    7075.0      0.99982    
    7090.0      0.99982    
    7105.0      0.99982    
    7120.0      0.99982    
    7135.0      0.99982    
    7150.0      0.99982    
    7165.0      0.99982    
    7180.0      0.99982    
    7195.0      0.99982    
    7210.0      0.99983    
    7225.0      0.99983    
    7240.0      0.99983    
    7255.0      0.99983    
    7270.0      0.99983    
    7285.0      0.99983    
    7300.0      0.99983    
    7315.0      0.99983    
    7330.0      0.99983    
    7345.0      0.99983    
    7360.0      0.99984    
    7375.0      0.99984    
    7390.0      0.99984    
    7405.0      0.99984    
    7420.0      0.99984    
    7435.0      0.99984    
    7450.0      0.99984    
    7465.0      0.99984    
    7480.0      0.99984    
    7495.0      0.99984    
    7510.0      0.99985    
    7525.1      0.99985    
    7540.1      0.99985    
    7555.2      0.99985    
    7570.2      0.99985    
    7585.2      0.99985    
    7600.3      0.99985    
    7615.3      0.99985    
    7630.4      0.99985    
    7645.4      0.99985    
    7660.4      0.99985    
    7675.5      0.99985    
    7690.5      0.99986    
    7705.6      0.99986    
    7720.6      0.99986    
    7735.6      0.99986    
    7750.7      0.99986    
    7765.7      0.99986    
    7780.8      0.99986    
    7795.8      0.99986    
    7810.8      0.99986    
    7825.9      0.99986    
    7840.9      0.99986    
    7856.0      0.99986    
    7871.0      0.99986    
    7886.0      0.99987    
    7901.1      0.99987    
    7916.1      0.99987    
    7931.2      0.99987    
    7946.2      0.99987    
    7961.2      0.99987    
    7976.3      0.99987    
    7991.3      0.99987    
    8006.4      0.99987    
    8021.4      0.99987    
    8036.4      0.99987    
    8051.5      0.99987    
    8066.5      0.99987    
    8081.6      0.99987    
    8096.6      0.99988    
    8111.6      0.99988    
    8126.7      0.99988    
    8141.7      0.99988    
    8156.8      0.99988    
    8171.8      0.99988    
    8186.8      0.99988    
    8201.9      0.99988    
    8216.9      0.99988    
    8232.0      0.99988    
    8247.0      0.99988    
    8262.0      0.99988    
    8277.1      0.99988    
    8292.1      0.99988    
    8307.2      0.99988    
    8322.2      0.99989    
    8337.2      0.99989    
    8352.3      0.99989    
    8367.3      0.99989    
    8382.4      0.99989    
    8397.4      0.99989    
    8412.4      0.99989    
    8427.5      0.99989    
    8442.5      0.99989    
    8457.6      0.99989    
    8472.6      0.99989    
    8487.6      0.99989    
    8502.7      0.99989    
    8517.7      0.99989    
    8532.8      0.99989    
    8547.8      0.99989    
    8562.8      0.99989    
    8577.9      0.99990    
    8592.9      0.99990    
    8608.0      0.99990    
    8623.0      0.99990    
    8638.0      0.99990    
    8653.1      0.99990    
    8668.1      0.99990    
    8683.2      0.99990    
    8698.2      0.99990    
    8713.2      0.99990    
    8728.3      0.99990    
    8743.3      0.99990    
    8758.4      0.99990    
    8773.4      0.99990    
    8788.4      0.99990    
    8803.5      0.99990    
    8818.5      0.99990    
    8833.6      0.99990    
    8848.6      0.99990    
    8863.6      0.99990    
    8878.7      0.99991    
    8893.7      0.99991    
    8908.8      0.99991    
    8923.8      0.99991    
    8938.8      0.99991    
    8953.9      0.99991    
    8968.9      0.99991    
    8984.0      0.99991    
    8999.0      0.99991    
    9014.0      0.99991    
    9029.1      0.99991    
    9044.1      0.99991    
    9059.2      0.99991    
    9074.2      0.99991    
    9089.2      0.99991    
    9104.3      0.99991    
    9119.3      0.99991    
    9134.4      0.99991    
    9149.4      0.99991    
    9164.4      0.99991    
    9179.5      0.99991    
    9194.5      0.99991    
    9209.6      0.99991    
    9224.6      0.99992    
    9239.6      0.99992    
    9254.7      0.99992    
    9269.7      0.99992    
    9284.8      0.99992    
    9299.8      0.99992    
    9314.8      0.99992    
    9329.9      0.99992    
    9344.9      0.99992    
    9360.0      0.99992    
    9375.0      0.99992    
    9390.0      0.99992    
    9405.1      0.99992    
    9420.1      0.99992    
    9435.2      0.99992    
    9450.2      0.99992    
    9465.3      0.99992    
    9480.3      0.99992    
    9495.3      0.99992    
    9510.4      0.99992    
    9525.4      0.99992    
    9540.5      0.99992    
    9555.5      0.99992    
    9570.5      0.99992    
    9585.6      0.99992    
    9600.6      0.99992    
    9615.7      0.99992    
    9630.7      0.99993    
    9645.7      0.99993    
    9660.8      0.99993    
    9675.8      0.99993    
    9690.9      0.99993    
    9705.9      0.99993    
    9720.9      0.99993    
    9736.0      0.99993    
    9751.0      0.99993    
    9766.1      0.99993    
    9781.1      0.99993    
    9796.1      0.99993    
    9811.2      0.99993    
    9826.2      0.99993    
    9841.3      0.99993    
    9856.3      0.99993    
    9871.3      0.99993    
    9886.4      0.99993    
    9901.4      0.99993    
    9916.5      0.99993    
    9931.5      0.99993    
    9946.5      0.99993    
    9961.6      0.99993    
    9976.6      0.99993    
    9991.7      0.99993    
    10007.      0.99993    
    10022.      0.99993    
    10037.      0.99993    
    10052.      0.99993    
    10067.      0.99993    
    10082.      0.99993    
    10097.      0.99994    
    10112.      0.99994    
    10127.      0.99994    
    10142.      0.99994    
    10157.      0.99994    
    10172.      0.99994    
    10187.      0.99994    
    10202.      0.99994    
    10217.      0.99994    
    10232.      0.99994    
    10247.      0.99994    
    10262.      0.99994    
    10277.      0.99994    
    10292.      0.99994    
    10307.      0.99994    
    10323.      0.99994    
    10338.      0.99994    
    10353.      0.99994    
    10368.      0.99994    
    10383.      0.99994    
    10398.      0.99994    
    10413.      0.99994    
    10428.      0.99994    
    10443.      0.99994    
    10458.      0.99994    
    10473.      0.99994    
    10488.      0.99994    
    10503.      0.99994    
    10518.      0.99994    
    10533.      0.99994    
    10548.      0.99994    
    10563.      0.99994    
    10578.      0.99994    
    10593.      0.99994    
    10608.      0.99994    
    10623.      0.99994    
    10638.      0.99994    
    10653.      0.99994    
    10668.      0.99994    
    10683.      0.99995    
    10699.      0.99995    
    10714.      0.99995    
    10729.      0.99995    
    10744.      0.99995    
    10759.      0.99995    
    10774.      0.99995    
    10789.      0.99995    
    10804.      0.99995    
    10819.      0.99995    
    10834.      0.99995    
    10849.      0.99995    
    10864.      0.99995    
    10879.      0.99995    
    10894.      0.99995    
    10909.      0.99995    
    10924.      0.99995    
    10939.      0.99995    
    10954.      0.99995    
    10969.      0.99995    
    10984.      0.99995    
    10999.      0.99995    
    11014.      0.99995    
    11029.      0.99995    
    11044.      0.99995    
    11059.      0.99995    
    11075.      0.99995    
    11090.      0.99995    
    11105.      0.99995    
    11120.      0.99995    
    11135.      0.99995    
    11150.      0.99995    
    11165.      0.99995    
    11180.      0.99995    
    11195.      0.99995    
    11210.      0.99995    
    11225.      0.99995    
    11240.      0.99995    
    11255.      0.99995    
    11270.      0.99995    
    11285.      0.99995    
    11300.      0.99995    
    11315.      0.99995    
    11330.      0.99995    
    11345.      0.99995    
    11360.      0.99995    
    11375.      0.99995    
    11390.      0.99995    
    11405.      0.99995    
    11420.      0.99995    
    11436.      0.99996    
    11451.      0.99996    
    11466.      0.99996    
    11481.      0.99996    
    11496.      0.99996    
    11511.      0.99996    
    11526.      0.99996    
    11541.      0.99996    
    11556.      0.99996    
    11571.      0.99996    
    11586.      0.99996    
    11601.      0.99996    
    11616.      0.99996    
    11631.      0.99996    
    11646.      0.99996    
    11661.      0.99996    
    11676.      0.99996    
    11691.      0.99996    
    11706.      0.99996    
    11721.      0.99996    
    11736.      0.99996    
    11751.      0.99996    
    11766.      0.99996    
    11781.      0.99996    
    11796.      0.99996    
    11812.      0.99996    
    11827.      0.99996    
    11842.      0.99996    
    11857.      0.99996    
    11872.      0.99996    
    11887.      0.99996    
    11902.      0.99996    
    11917.      0.99996    
    11932.      0.99996    
    11947.      0.99996    
    11962.      0.99996    
    11977.      0.99996    
    11992.      0.99996    
    12007.      0.99996    
    12022.      0.99996    
    12037.      0.99996    
    12052.      0.99996    
    12067.      0.99996    
    12082.      0.99996    
    12097.      0.99996    
    12112.      0.99996    
    12127.      0.99996    
    12142.      0.99996    
    12157.      0.99996    
    12172.      0.99996    
    12188.      0.99996    
    12203.      0.99996    
    12218.      0.99996    
    12233.      0.99996    
    12248.      0.99996    
    12263.      0.99996    
    12278.      0.99996    
    12293.      0.99996    
    12308.      0.99996    
    12323.      0.99996    
    12338.      0.99996    
    12353.      0.99996    
    12368.      0.99996    
    12383.      0.99996    
    12398.      0.99996    
    12413.      0.99996    
    12428.      0.99996    
    12443.      0.99997    
    12458.      0.99997    
    12473.      0.99997    
    12488.      0.99997    
    12503.      0.99997    
    12518.      0.99997    
    12533.      0.99997    
    12548.      0.99997    
    12564.      0.99997    
    12579.      0.99997    
    12594.      0.99997    
    12609.      0.99997    
    12624.      0.99997    
    12639.      0.99997    
    12654.      0.99997    
    12669.      0.99997    
    12684.      0.99997    
    12699.      0.99997    
    12714.      0.99997    
    12729.      0.99997    
    12744.      0.99997    
    12759.      0.99997    
    12774.      0.99997    
    12789.      0.99997    
    12804.      0.99997    
    12819.      0.99997    
    12834.      0.99997    
    12849.      0.99997    
    12864.      0.99997    
    12879.      0.99997    
    12894.      0.99997    
    12909.      0.99997    
    12924.      0.99997    
    12940.      0.99997    
    12955.      0.99997    
    12970.      0.99997    
    12985.      0.99997    
    13000.      0.99997    
    13015.      0.99997    
    13030.      0.99997    
    13045.      0.99997    
    13060.      0.99997    
    13075.      0.99997    
    13090.      0.99997    
    13105.      0.99997    
    13120.      0.99997    
    13135.      0.99997    
    13150.      0.99997    
    13165.      0.99997    
    13180.      0.99997    
    13195.      0.99997    
    13210.      0.99997    
    13225.      0.99997    
    13240.      0.99997    
    13255.      0.99997    
    13270.      0.99997    
    13285.      0.99997    
    13300.      0.99997    
    13316.      0.99997    
    13331.      0.99997    
    13346.      0.99997    
    13361.      0.99997    
    13376.      0.99997    
    13391.      0.99997    
    13406.      0.99997    
    13421.      0.99997    
    13436.      0.99997    
    13451.      0.99997    
    13466.      0.99997    
    13481.      0.99997    
    13496.      0.99997    
    13511.      0.99997    
    13526.      0.99997    
    13541.      0.99997    
    13556.      0.99997    
    13571.      0.99997    
    13586.      0.99997    
    13601.      0.99997    
    13616.      0.99997    
    13631.      0.99997    
    13646.      0.99997    
    13661.      0.99997    
    13676.      0.99997    
    13692.      0.99997    
    13707.      0.99997    
    13722.      0.99997    
    13737.      0.99997    
    13752.      0.99997    
    13767.      0.99997    
    13782.      0.99997    
    13797.      0.99997    
    13812.      0.99997    
    13827.      0.99997    
    13842.      0.99997    
    13857.      0.99997    
    13872.      0.99997    
    13887.      0.99997    
    13902.      0.99997    
    13917.      0.99997    
    13932.      0.99997    
    13947.      0.99998    
    13962.      0.99998    
    13977.      0.99998    
    13992.      0.99998    
    14007.      0.99998    
    14022.      0.99998    
    14037.      0.99998    
    14052.      0.99998    
    14068.      0.99998    
    14083.      0.99998    
    14098.      0.99998    
    14113.      0.99998    
    14128.      0.99998    
    14143.      0.99998    
    14158.      0.99998    
    14173.      0.99998    
    14188.      0.99998    
    14203.      0.99998    
    14218.      0.99998    
    14233.      0.99998    
    14248.      0.99998    
    14263.      0.99998    
    14278.      0.99998    
    14293.      0.99998    
    14308.      0.99998    
    14323.      0.99998    
    14338.      0.99998    
    14353.      0.99998    
    14368.      0.99998    
    14383.      0.99998    
    14398.      0.99998    
    14413.      0.99998    
    14428.      0.99998    
    14444.      0.99998    
    14459.      0.99998    
    14474.      0.99998    
    14489.      0.99998    
    14504.      0.99998    
    14519.      0.99998    
    14534.      0.99998    
    14549.      0.99998    
    14564.      0.99998    
    14579.      0.99998    
    14594.      0.99998    
    14609.      0.99998    
    14624.      0.99998    
    14639.      0.99998    
    14654.      0.99998    
    14669.      0.99998    
    14684.      0.99998    
    14699.      0.99998    
    14714.      0.99998    
    14729.      0.99998    
    14744.      0.99998    
    14759.      0.99998    
    14774.      0.99998    
    14789.      0.99998    
    14804.      0.99998    
    14820.      0.99998    
    14835.      0.99998    
    14850.      0.99998    
    14865.      0.99998    
    14880.      0.99998    
    14895.      0.99998    
    14910.      0.99998    
    14925.      0.99998    
    14940.      0.99998    
    14955.      0.99998    
    14970.      0.99998    
    14985.      0.99998    
    15000.      0.99998      
